Id      Time stamp(sec)   x (nm)         y (nm)           z(nm)
2456	88.9549	        20710.18317	3959.97247	-230.74219
2456	88.95592	20723.04073	3951.54481	-220.5801
2456	88.95645	20716.11111	3945.45671	-208.66711
2456	88.95697	20720.70063	3959.88749	-192.64763
2456	88.9575	        20709.83966	3941.74556	-203.03479
2456	88.95803	20697.22372	3957.24641	-195.52866
2456	88.95855	20708.27499	3957.5306	-192.16281
2456	88.95908	20694.20973	3945.4257	-205.79884
2456	88.9596	        20682.42885	3945.33957	-193.87826
2456	88.96013	20688.79499	3972.35965	-196.18012
2456	88.96065	20683.29362	3943.41448	-196.18702
2456	88.96118	20701.59055	3948.44197	-216.01888
2456	88.9617	        20691.95279	3949.81685	-217.08169
2456	88.96273	20696.88944	3958.14314	-202.05898
2456	88.96478	20704.42866	3960.38473	-193.65531
2456	88.96531	20696.22521	3959.93531	-198.0865
2456	88.96583	20686.85576	3958.33174	-212.73027
3107	94.51806	21596.71768	4214.69844	-1.57085
3107	94.51859	21621.57275	4196.68968	4.464
3107	94.51911	21619.18683	4204.13542	10.24091
3107	94.51964	21619.1869	4186.98396	0.69507
3107	94.52017	21598.87062	4195.33715	17.97881
3107	94.52119	21616.9689	4201.97013	20.68848
3107	94.52222	21590.81964	4192.5008	7.34634
3107	94.52677	21583.86575	4192.40936	5.30095
6961	123.76031	18711.41353	1845.54432	-230.39037
6961	123.76084	18692.25429	1865.43652	-233.12039
6961	123.76136	18680.07257	1856.47768	-257.46194
6961	123.76189	18673.5612	1851.33322	-248.73641
6961	123.76291	18692.28422	1868.98221	-241.11935
6961	123.76494	18685.33908	1890.4668	-221.9085
6961	123.76647	18669.88778	1879.74518	-226.26311
6961	123.76699	18672.4349	1878.07446	-228.64324
6961	123.76852	18672.31468	1873.04467	-243.33055
7147	125.14654	20112.64981	3518.67805	103.2735
7147	125.14707	20083.81406	3499.61816	99.58018
7147	125.14759	20094.74026	3490.93316	105.68235
7147	125.14812	20102.38051	3518.88281	111.5778
7147	125.14864	20091.95676	3498.88466	109.03641
7147	125.14917	20089.07509	3501.1752	136.05849
7147	125.14969	20078.01215	3509.98482	122.50988
7147	125.15172	20078.37434	3505.99818	122.50071
7147	125.15625	20077.34575	3505.99791	119.70639
8149	132.32277	19628.52469	1806.97456	-126.91097
8149	132.32379	19647.40121	1829.13441	-116.45216
8149	132.32432	19668.92448	1819.54704	-123.00692
8149	132.32534	19657.29166	1809.65384	-134.70698
8149	132.32587	19660.26582	1837.29986	-131.00231
8149	132.32639	19668.58046	1854.79541	-121.11301
8149	132.32692	19672.32437	1832.31649	-98.45968
8149	132.32745	19696.31604	1864.82469	-115.26902
8149	132.32797	19669.8786	1856.49803	-117.342
8149	132.3285	19672.70554	1845.12964	-106.09009
8149	132.32902	19675.15466	1832.59057	-77.81685
8149	132.32955	19656.95698	1837.81255	-96.78572
8736	136.55446	19454.65129	1362.5733	-198.01015
8736	136.55548	19450.01691	1341.895	-201.35938
8736	136.55601	19452.54316	1365.15654	-188.39672
8736	136.55703	19452.53147	1355.95175	-192.12576
8736	136.55806	19443.98802	1381.45397	-194.3906
8736	136.55858	19434.35872	1357.79745	-208.80815
8736	136.55911	19444.31868	1377.9543	-185.55821
8736	136.56014	19448.91044	1383.44307	-171.4055
8736	136.56119	19458.36475	1371.45416	-153.89735
8736	136.56171	19465.64854	1367.91702	-156.26194
8736	136.56224	19471.36949	1368.60933	-136.33167
8736	136.56276	19467.29219	1376.83732	-150.99871
8736	136.56329	19460.82192	1390.11882	-158.25076
8736	136.56431	19460.03439	1384.53131	-188.46664
8736	136.56484	19452.26955	1371.69686	-196.17587
8736	136.56536	19471.41124	1387.16068	-211.22518
8736	136.56589	19476.22137	1398.65073	-221.44418
8736	136.56641	19469.94782	1390.30142	-202.41632
8736	136.56694	19480.8955	1386.65217	-187.91412
8736	136.56799	19452.17339	1378.7569	-192.13578
8736	136.56902	19484.92816	1395.77786	-183.34147
8736	136.56954	19468.5097	1392.70337	-181.75164
8736	136.57007	19437.83869	1389.35964	-206.76396
8736	136.57059	19463.0609	1383.4945	-237.45411
8736	136.57112	19455.17914	1364.41175	-231.54435
8736	136.57164	19471.31547	1382.64757	-239.93919
8736	136.57217	19479.98951	1378.94876	-234.89276
8736	136.57269	19468.27641	1366.75734	-247.37474
8736	136.57322	19448.48651	1368.41296	-262.27039
8736	136.57374	19466.05317	1352.98774	-276.6411
8736	136.57427	19462.33686	1371.5776	-279.45774
8906	137.89482	20189.0352	2487.29499	-176.98022
8906	137.89534	20206.74534	2507.58689	-160.82229
8906	137.89587	20197.78917	2482.26405	-157.11591
8906	137.89689	20202.61537	2491.4293	-142.45805
8906	137.89742	20200.11457	2483.92548	-136.27614
8906	137.89845	20180.45768	2476.30539	-130.35336
8906	137.89947	20180.71479	2464.38233	-150.0517
8906	137.901	20185.58274	2451.05723	-144.1131
8906	137.90202	20189.12197	2472.52832	-168.87879
8906	137.90305	20199.23984	2460.91605	-168.88811
8906	137.90408	20204.39554	2461.00716	-165.50211
8906	137.9051	20217.83298	2470.02244	-192.57234
8906	137.90663	20206.11249	2442.24112	-192.63175
8906	137.90766	20210.35829	2446.45126	-173.90686
8906	137.90868	20186.69536	2437.58077	-150.51991
8906	137.90971	20208.99265	2432.29465	-140.24879
8906	137.91023	20201.4	2431.47832	-133.11231
8906	137.91126	20181.89488	2444.37861	-129.84209
8906	137.91178	20188.95691	2425.27669	-135.98403
8906	137.91231	20176.38653	2426.14923	-130.94141
8906	137.91334	20199.12409	2432.56078	-130.98805
8906	137.91436	20207.81861	2437.89129	-141.26255
8906	137.91489	20207.19027	2439.32076	-145.68116
8906	137.91541	20225.02212	2436.65069	-107.66011
8906	137.91594	20224.3667	2432.44325	-87.68568
8906	137.91646	20244.82207	2423.58928	-81.87752
8906	137.91699	20248.68739	2427.4828	-97.97343
8906	137.91751	20249.53887	2412.49719	-113.07392
8906	137.91804	20242.6221	2421.93655	-140.74767
8906	137.91857	20246.65592	2414.57713	-124.44486
8906	137.91959	20231.00103	2403.6199	-127.16639
8906	137.92162	20225.78702	2395.56366	-119.62856
8906	137.92264	20235.43608	2395.21782	-106.48868
9665	143.29367	21166.02489	3589.72836	-34.20315
9665	143.2942	21176.40499	3590.82533	-34.25545
9665	143.29472	21183.87856	3593.44761	-54.23951
9665	143.29525	21161.78584	3593.44757	-60.35347
9665	143.29728	21165.28734	3596.24206	-55.97786
9665	143.2983	21167.3072	3611.60526	-64.32166
9665	143.29985	21172.74125	3602.81311	-74.85152
9665	143.30038	21158.18174	3595.03697	-81.02123
9665	143.3009	21146.14749	3602.02737	-84.40367
9665	143.30143	21122.44515	3611.9604	-107.86005
9665	143.30548	21147.39232	3615.00948	-131.90873
9665	143.308	21139.38535	3648.89647	-107.1528
9665	143.30853	21164.83549	3600.17901	-92.22122
9665	143.30955	21149.22968	3639.82652	-88.59185
9665	143.31008	21134.40669	3612.99506	-126.68916
9665	143.31111	21113.63761	3599.88304	-122.04496
9665	143.31163	21136.34791	3605.35477	-96.54032
9665	143.31216	21145.72376	3610.13853	-90.49248
9665	143.31318	21112.37133	3608.48849	-106.16921
9665	143.31371	21127.99038	3597.62257	-128.83822
9665	143.31423	21121.00243	3602.81215	-155.28019
9665	143.31476	21144.83544	3593.09735	-129.61058
9665	143.31528	21138.31573	3606.39319	-140.11581
9665	143.31581	21131.95598	3617.26997	-114.08836
9665	143.31633	21125.49389	3613.39682	-94.07218
9665	143.31736	21143.46885	3580.54259	-76.87229
9665	143.32039	21153.94678	3586.81735	-46.59005
9665	143.32241	21142.76857	3593.2521	-46.60836
9665	143.32497	21146.56564	3606.06134	-54.29538
9665	143.32599	21139.53222	3580.24027	-36.32258
9665	143.32702	21144.38395	3589.47206	-25.82785
9665	143.32855	21159.51712	3570.24234	-19.9557
9665	143.32957	21157.58888	3588.59651	-16.61677
9665	143.3306	21147.93081	3581.9663	-22.82788
9665	143.33162	21147.50977	3600.43894	-27.16665
9665	143.33315	21175.63943	3588.52018	-5.22824
9665	143.33368	21187.92111	3568.74681	4.49487
9665	143.3342	21153.81032	3562.07665	23.78364
9665	143.33473	21166.88807	3550.62538	17.74565
9665	143.33575	21156.31005	3563.46739	1.44016
9665	143.33678	21160.43249	3556.68231	16.08499
15182	182.96089	19378.25194	3685.2267	-5.36449
15182	182.96141	19361.65482	3694.74537	-6.64338
15182	182.96194	19360.35342	3687.02836	16.13114
15182	182.96247	19362.25615	3686.31424	9.92348
15182	182.96299	19333.19777	3683.34361	12.10737
15182	182.96352	19354.19201	3685.2242	10.2906
15182	182.96454	19350.65962	3728.81402	20.79073
15182	182.96507	19346.18263	3700.07943	30.13375
15182	182.96609	19324.84966	3687.87274	40.05866
15182	182.96662	19330.46333	3689.74143	27.83167
15182	182.96765	19330.80696	3677.57304	47.66106
15182	182.96867	19331.81532	3672.71365	44.23919
15182	182.9697	19348.44493	3699.48215	37.40432
15182	182.97022	19339.78816	3682.07531	15.8414
15182	182.97075	19342.51305	3682.49927	20.69676
15182	182.97127	19340.87542	3686.38511	18.27519
15182	182.9718	19340.87546	3702.53869	34.27262
15182	182.97232	19331.20367	3696.15777	26.50096
15182	182.97285	19326.54473	3696.72695	34.24816
15182	182.97388	19321.1038	3680.74779	50.20329
15182	182.9749	19315.52856	3692.25962	39.76323
15182	182.97593	19298.57746	3683.76432	65.43919
15182	182.97645	19283.74093	3686.64554	53.15551
15182	182.97798	19270.45731	3683.77471	56.35414
15182	182.97901	19272.28714	3680.55597	59.10894
15182	182.98353	19273.11143	3676.1544	59.09416
17560	199.57435	18687.52959	1912.1743	-208.73204
17560	199.57488	18727.1882	1916.11465	-207.17363
17560	199.5759	18743.1274	1907.54645	-195.93423
17560	199.57643	18735.12887	1915.18255	-220.79933
17560	199.57695	18747.59307	1899.66676	-218.09586
17560	199.57848	18762.52425	1878.22524	-181.19683
17560	199.57951	18738.66254	1875.49606	-194.20198
17560	199.58156	18729.86116	1888.15247	-205.97599
17560	199.58258	18741.75944	1876.75362	-208.8063
17560	199.58361	18746.69616	1886.89731	-196.66064
17560	199.58464	18736.10008	1876.97913	-190.5351
17560	199.58516	18748.3543	1869.41891	-213.2005
17560	199.58619	18729.23917	1860.3114	-203.02206
17560	199.58671	18739.75442	1877.24796	-219.27171
17560	199.58724	18737.9277	1893.49541	-224.24703
17560	199.58826	18746.51139	1878.45309	-232.76218
17560	199.58929	18736.75533	1877.89443	-232.77287
17751	200.9659	20356.40223	3631.25173	11.3839
17751	200.96643	20307.03829	3598.5234	-13.02346
17751	200.96695	20329.21214	3621.89292	-17.96929
17751	200.96748	20332.42436	3629.14428	-15.2714
17751	200.968	20302.90936	3591.60647	-30.27547
17751	200.96853	20335.56873	3603.51183	-46.1919
17852	201.73292	18600.48161	3359.92995	163.51705
17852	201.73344	18629.48821	3325.13164	159.10484
17852	201.73397	18629.51988	3316.72261	142.8387
17852	201.73449	18631.50392	3322.01498	148.78841
17852	201.73502	18614.71229	3317.63595	134.50633
17852	201.73554	18614.46194	3303.65109	137.17679
17852	201.73657	18618.43401	3308.36201	149.08436
17852	201.7376	18605.08731	3298.51419	151.76348
17852	201.73812	18586.54561	3301.18159	136.05506
17852	201.73865	18598.86434	3296.47156	115.95219
17852	201.73917	18585.65723	3296.77754	129.51222
19312	212.36943	21665.92716	1744.99465	52.75283
19312	212.36995	21645.88195	1713.642	43.3639
19312	212.37048	21641.15665	1724.65601	49.3668
19312	212.37251	21661.61759	1733.58271	52.73416
19312	212.37353	21650.21859	1730.28827	49.93104
19312	212.37456	21651.07182	1764.18464	42.74774
19312	212.37811	21649.12898	1761.4063	41.90342
19312	212.37864	21651.61291	1758.74127	38.25065
19312	212.37916	21662.55408	1755.66405	43.29611
19312	212.37969	21659.417	1750.19277	33.44747
19312	212.38021	21624.49059	1715.81555	-2.10597
19312	212.38074	21637.64604	1751.10605	-4.64468
19312	212.38126	21619.86714	1760.147	-4.7043
19312	212.38179	21605.90981	1718.96808	-41.27952
19312	212.38583	21643.06271	1740.8033	-53.21037
19312	212.38836	21618.06206	1759.69413	-81.03562
19312	212.38941	21613.74979	1758.96653	-100.93518
19312	212.39446	21621.26316	1756.56619	-96.54418
21733	229.55758	19740.29355	3291.86533	-204.28036
21733	229.5581	19750.12165	3286.4462	-204.32814
21733	229.55863	19762.20893	3280.90302	-193.88354
21733	229.55915	19746.26843	3271.94361	-191.72575
21733	229.55968	19751.99347	3276.36204	-187.00018
21733	229.5602	19738.99718	3271.17933	-187.05523
21733	229.56073	19736.57805	3281.85547	-188.27075
21733	229.56125	19734.28328	3275.92763	-194.45416
21733	229.56178	19745.77425	3270.9963	-211.45843
21733	229.5623	19739.49975	3266.66092	-203.69858
21733	229.56283	19736.24174	3270.11824	-205.0501
21733	229.56335	19709.76364	3263.05321	-230.3692
22743	236.19117	21098.15334	2352.96863	174.33035
22743	236.1927	21078.64902	2311.64892	184.07238
22743	236.19322	21075.43018	2327.41115	173.51905
22743	236.19425	21093.63879	2338.99875	173.49058
22743	236.19528	21097.07186	2303.72832	170.90807
22743	236.1958	21090.65075	2303.73733	166.53683
22743	236.19633	21102.23976	2310.94974	180.18262
22743	236.19735	21092.1436	2310.94966	162.69321
22743	236.19788	21096.98327	2295.5933	164.69627
22743	236.1984	21106.98574	2305.32786	172.34738
22743	236.19893	21089.04254	2287.17442	151.30145
22743	236.20298	21086.6423	2298.40855	159.75005
23258	240.0677	21638.3292	1427.18999	-245.20183
23258	240.06823	21678.83933	1444.2217	-257.45042
23258	240.06875	21663.92817	1439.95482	-265.19508
23258	240.06928	21650.09402	1443.65903	-275.46201
23258	240.0698	21663.59226	1451.18286	-268.79246
23258	240.07033	21656.21952	1435.48143	-265.77133
23258	240.07085	21650.22799	1446.82913	-244.36124
23258	240.07138	21636.56288	1447.55882	-222.79827
23258	240.0719	21635.53929	1428.44419	-222.79872
23258	240.07243	21637.46767	1400.58734	-215.63431
23258	240.07295	21638.07341	1441.58171	-213.20357
23258	240.07398	21664.35035	1452.10353	-198.0178
23258	240.07451	21643.81802	1448.14316	-236.56843
23258	240.07503	21645.49077	1444.31203	-204.3607
23258	240.07556	21626.88851	1467.01098	-241.80234
23258	240.07608	21641.15117	1450.78809	-215.50735
23258	240.07711	21638.73303	1490.61838	-245.29332
23258	240.08116	21621.4765	1459.69259	-237.78436
23258	240.08368	21655.76999	1469.65976	-255.45633
23258	240.08421	21633.35669	1472.26347	-220.25317
23258	240.08473	21603.6455	1446.06307	-231.22283
23258	240.08576	21621.96328	1487.67111	-231.28003
23258	240.08679	21602.4372	1451.8362	-235.42549
23258	240.08881	21611.55201	1465.04394	-238.8537
23258	240.08984	21616.26639	1454.17878	-249.35328
23258	240.09137	21613.72611	1483.9355	-265.0767
23258	240.09239	21609.53607	1452.4175	-259.06566
23258	240.09292	21588.85113	1469.18714	-273.91028
23258	240.09794	21579.9546	1459.30891	-263.75433
23258	240.10097	21617.06752	1447.50721	-259.71294
23258	240.1045	21603.21516	1483.07689	-263.86324
23258	240.10553	21586.33999	1458.16605	-245.88992
23258	240.10655	21616.08148	1493.76291	-262.90164
23258	240.1106	21641.38605	1477.06236	-254.80897
23258	240.11363	21643.41264	1473.00503	-251.53403
23258	240.11415	21616.09175	1471.49644	-289.83132
23258	240.11468	21624.23167	1484.36418	-322.15348
23258	240.1152	21610.99641	1458.7876	-296.53075
27390	269.55264	20160.1363	1841.07681	251.03865
27390	269.55316	20109.02146	1783.23014	213.40192
27390	269.55369	20150.9965	1823.62947	235.91
27390	269.55422	20120.35424	1801.78281	223.60713
27390	269.56027	20125.96363	1807.40794	234.09756
27390	269.56279	20123.47735	1811.46984	243.28309
28417	276.64264	18637.53798	2885.4044	-64.40109
28417	276.64517	18634.27307	2917.72829	-80.20565
28417	276.64619	18625.67805	2903.41418	-90.7587
28417	276.65224	18618.43417	2901.36277	-98.5668
28417	276.65727	18631.50514	2903.63742	-94.19049
28417	276.6593	18660.75596	2912.1355	-92.083
28417	276.66082	18641.62596	2903.99407	-102.63074
28417	276.66135	18637.40334	2899.03168	-105.00995
28417	276.66187	18634.34464	2918.61618	-117.57338
28417	276.6624	18630.83499	2901.05186	-115.82475
28417	276.66343	18635.19248	2916.13963	-108.73125
28417	276.66395	18643.47332	2916.19244	-108.76323
28417	276.66448	18651.94219	2906.67882	-70.296
28417	276.665	18626.04608	2918.11022	-86.19614
28417	276.66553	18617.1656	2929.10173	-78.0709
28417	276.66605	18651.18801	2933.80974	-75.23127
28417	276.66658	18650.47146	2915.36764	-103.4805
28417	276.66763	18622.24056	2906.62169	-127.49364
28417	276.66815	18629.73409	2910.66525	-113.73905
28417	276.66968	18640.93853	2902.32678	-113.76878
28417	276.67421	18626.6371	2881.78305	-113.76931
29380	283.40498	19631.66367	1354.51266	45.67945
29380	283.4055	19630.85143	1360.97573	49.4546
29380	283.40653	19637.39408	1353.21572	27.45846
29380	283.40705	19659.80519	1362.9612	-9.76495
29380	283.40758	19644.56201	1332.8096	-27.6639
29380	283.4081	19647.23082	1355.44872	-8.7748
29380	283.40913	19660.18625	1362.72465	29.40974
29380	283.40966	19664.8569	1346.1674	16.23281
29380	283.41068	19661.07479	1368.39116	38.61102
29380	283.41121	19667.23872	1333.33266	71.64495
29380	283.41223	19631.84398	1305.30662	36.30659
29380	283.41276	19628.54477	1351.49414	40.32964
29380	283.41328	19622.92047	1350.57843	58.67075
29380	283.41381	19638.04546	1368.37443	48.61473
29380	283.41433	19625.34861	1354.4749	55.96662
29380	283.41536	19622.70373	1396.76566	36.70016
29380	283.41589	19635.90115	1373.3202	58.15398
29380	283.41641	19607.60278	1365.95639	73.82331
29380	283.41694	19602.02198	1402.45264	66.43217
29380	283.41746	19596.00102	1359.74237	51.89626
29380	283.41799	19609.20763	1353.44002	90.00642
29380	283.41851	19606.80064	1389.03158	99.98406
29380	283.41904	19614.25743	1368.30935	86.29279
29380	283.41956	19586.52491	1368.56616	73.95677
29380	283.42009	19637.2724	1386.67519	37.61001
29380	283.42111	19610.40655	1341.90195	0.77135
29380	283.42164	19612.44278	1392.12422	35.60052
29380	283.42216	19638.16425	1350.608	-1.41538
29380	283.42269	19627.13997	1340.99462	14.38075
29380	283.42322	19596.272	1389.28511	-20.16237
29380	283.42374	19612.47373	1373.72665	-4.39143
29380	283.42427	19627.39165	1365.47258	33.84836
29380	283.42479	19619.14388	1382.95606	30.80074
29380	283.42532	19592.15559	1409.24079	54.18878
29380	283.42584	19602.20522	1373.25026	61.9395
29380	283.42637	19639.70576	1366.53746	98.4679
29380	283.42689	19622.78331	1371.43879	117.78957
29380	283.42742	19665.07054	1367.88583	112.72898
29380	283.42794	19656.56571	1343.8265	144.42404
29380	283.42899	19658.57156	1341.82411	129.70208
29380	283.42952	19627.87403	1330.49718	115.50873
29722	285.89767	18620.75795	2680.3572	137.75823
29722	285.8982	18599.61022	2704.29357	134.9744
29722	285.89872	18595.18444	2687.53256	125.39965
29722	285.89925	18599.2468	2690.2319	125.35217
29722	285.89978	18582.97079	2679.55611	135.59694
29722	285.9003	18604.77849	2672.75413	146.75182
29722	285.90083	18593.75059	2684.93016	149.07191
29722	285.90338	18576.56836	2687.16743	150.13712
29722	285.9039	18594.0269	2677.74833	150.87491
29722	285.90443	18588.22997	2675.64667	142.34476
29722	285.90495	18587.19232	2684.71825	135.43401
29722	285.90548	18582.07342	2685.82242	117.44448
29722	285.906	18571.86895	2713.8134	89.66806
29722	285.90653	18537.63027	2723.83383	112.83087
29722	285.90706	18565.31276	2698.92097	113.82095
29722	285.90758	18567.40984	2691.45354	152.28479
29722	285.90863	18558.55744	2697.01463	144.19314
29722	285.90916	18567.32619	2700.52158	153.6858
29722	285.90968	18600.53139	2716.22504	153.6737
29722	285.91021	18582.13588	2699.24444	155.80696
29722	285.91073	18596.34635	2695.34147	159.09774
29722	285.91126	18554.96386	2716.13197	187.82703
29722	285.91178	18614.75301	2701.24225	217.61978
29722	285.91331	18567.63301	2706.68003	222.47087
29722	285.91383	18572.91736	2696.72404	229.1408
29722	285.91436	18576.33671	2700.82318	252.51446
29722	285.91488	18538.52269	2674.21328	230.11045
29722	285.91643	18575.98862	2690.62754	240.33521
29722	285.91696	18576.95183	2674.04596	228.86749
29722	285.91748	18567.69798	2666.51452	241.3773
29722	285.91801	18599.38362	2705.55723	262.56323
29722	285.91854	18571.77774	2697.1813	247.82362
29722	285.91906	18585.3213	2657.99905	241.82879
29722	285.91959	18563.83382	2686.10939	244.51033
29722	285.92011	18548.26287	2700.745	218.12276
